Sensor Model:   RU-1000-BF0.007
Serial Number:	R30197
Data Format:    4      (Log Ohms/Kelvin)
SetPoint Limit: 100.0      (Kelvin)
Temperature coefficient:  1 (Negative)
Number of Breakpoints:   198

No.   Units      Temperature (K)

1	3.01149	102
2	3.01200	99
3	3.01246	96.5
4	3.01295	94
5	3.01346	91.5
6	3.01399	89
7	3.01456	86.5
8	3.01516	84
9	3.01579	81.5
10	3.01646	79
11	3.01717	76.5
12	3.01792	74
13	3.01871	71.5
14	3.01955	69
15	3.02026	67
16	3.02100	65
17	3.02178	63
18	3.02260	61
19	3.02347	59
20	3.02438	57
21	3.02534	55
22	3.02635	53
23	3.02742	51
24	3.02856	49
25	3.02965	47.2
26	3.03079	45.4
27	3.03201	43.6
28	3.03330	41.8
29	3.03475	39.9
30	3.03613	38.2
31	3.03761	36.5
32	3.03909	34.9
33	3.04067	33.3
34	3.04237	31.7
35	3.04407	30.2
36	3.04590	28.7
37	3.04786	27.2
38	3.04984	25.8
39	3.05182	24.5
40	3.05395	23.2
41	3.05626	21.9
42	3.05856	20.7
43	3.06042	19.8
44	3.06195	19.1
45	3.06355	18.4
46	3.06525	17.7
47	3.06691	17.05
48	3.06865	16.4
49	3.07050	15.75
50	3.07230	15.15
51	3.07420	14.55
52	3.07622	13.95
53	3.07817	13.4
54	3.08024	12.85
55	3.08243	12.3
56	3.08454	11.8
57	3.08677	11.3
58	3.08915	10.8
59	3.09167	10.3
60	3.09410	9.85
61	3.09667	9.4
62	3.09942	8.95
63	3.10202	8.55
64	3.10480	8.15
65	3.10776	7.75
66	3.11093	7.35
67	3.11434	6.95
68	3.11755	6.6
69	3.12099	6.25
70	3.12492	5.88
71	3.12883	5.54
72	3.13281	5.22
73	3.13685	4.92
74	3.14123	4.62
75	3.14599	4.32
76	3.15086	4.04
77	3.15480	3.83
78	3.15842	3.65
79	3.16228	3.47
80	3.16640	3.29
81	3.17058	3.12
82	3.17507	2.95
83	3.17961	2.79
84	3.18451	2.63
85	3.18946	2.48
86	3.19482	2.33
87	3.20023	2.19
88	3.20611	2.05
89	3.21206	1.92
90	3.21854	1.79
91	3.22508	1.67
92	3.23162	1.56
93	3.23877	1.45
94	3.24665	1.34
95	3.25454	1.24
96	3.25967	1.18
97	3.26374	1.135
98	3.26801	1.09
99	3.27250	1.045
100	3.27724	1
101	3.28169	0.96
102	3.28636	0.92
103	3.29129	0.88
104	3.29650	0.84
105	3.30203	0.8
106	3.30715	0.765
107	3.31256	0.73
108	3.31830	0.695
109	3.32439	0.66
110	3.33089	0.625
111	3.33682	0.595
112	3.34311	0.565
113	3.34983	0.535
114	3.35700	0.505
115	3.36286	0.482
116	3.36823	0.462
117	3.37388	0.442
118	3.37984	0.422
119	3.38550	0.404
120	3.39354	0.38
121	3.40070	0.36
122	3.40835	0.34
123	3.41655	0.32
124	3.42538	0.3
125	3.43493	0.28
126	3.44533	0.26
127	3.45670	0.24
128	3.46926	0.22
129	3.48323	0.2
130	3.48698	0.195
131	3.49085	0.19
132	3.49483	0.185
133	3.49895	0.18
134	3.50320	0.175
135	3.50760	0.17
136	3.51216	0.165
137	3.51688	0.16
138	3.52177	0.155
139	3.52686	0.15
140	3.53215	0.145
141	3.53765	0.14
142	3.54340	0.135
143	3.54939	0.13
144	3.55567	0.125
145	3.56225	0.12
146	3.56916	0.115
147	3.57643	0.11
148	3.58409	0.105
149	3.59220	0.1
150	3.60080	0.095
151	3.60994	0.09
152	3.61969	0.085
153	3.63014	0.08
154	3.64137	0.075
155	3.65351	0.07
156	3.66670	0.065
157	3.68111	0.06
158	3.69697	0.055
159	3.71458	0.05
160	3.72220	0.048
161	3.72614	0.047
162	3.73433	0.045
163	3.73858	0.044
164	3.74742	0.042
165	3.75675	0.04
166	3.76161	0.039
167	3.76662	0.038
168	3.77179	0.037
169	3.77711	0.036
170	3.78260	0.035
171	3.78827	0.034
172	3.79414	0.033
173	3.80021	0.032
174	3.80650	0.031
175	3.81302	0.03
176	3.81980	0.029
177	3.82684	0.028
178	3.83417	0.027
179	3.84182	0.026
180	3.84981	0.025
181	3.85818	0.024
182	3.86694	0.023
183	3.87615	0.022
184	3.88586	0.021
185	3.89610	0.02
186	3.90694	0.019
187	3.91845	0.018
188	3.93071	0.017
189	3.94382	0.016
190	3.95789	0.015
191	3.97306	0.014
192	3.98948	0.013
193	4.00734	0.012
194	4.02685	0.011
195	4.04825	0.01
196	4.07174	0.009
197	4.09743	0.008
198	4.12503	0.007
